File: artifacts/data.csv
,_id,Cement (component 1)(kg in a m^3 mixture),Blast Furnace Slag (component 2)(kg in a m^3 mixture),Fly Ash (component 3)(kg in a m^3 mixture),Water  (component 4)(kg in a m^3 mixture),Superplasticizer (component 5)(kg in a m^3 mixture),Coarse Aggregate  (component 6)(kg in a m^3 mixture),Fine Aggregate (component 7)(kg in a m^3 mixture),Age (day),"Concrete compressive strength(MPa, megapascals) "
0,65c21d0abf85afd03721ab7b,540.0,0.0,0.0,162.0,2.5,1040.0,676.0,28.0,79.9861
9,65c21d0abf85afd03721ab84,475.0,0.0,0.0,228.0,0.0,932.0,594.0,28.0,39.2898
18,65c21d0abf85afd03721ab8d,380.0,95.0,0.0,228.0,0.0,932.0,594.0,90.0,40.5633
27,65c21d0abf85afd03721ab96,342.0,38.0,0.0,228.0,0.0,932.0,670.0,180.0,52.1244
36,65c21d0abf85afd03721ab9f,237.5,237.5,0.0,228.0,0.0,932.0,594.0,28.0,30.0798
45,65c21d0abf85afd03721aba8,427.5,47.5,0.0,228.0,0.0,932.0,594.0,7.0,35.0764
54,65c21d0abf85afd03721abb1,139.6,209.4,0.0,192.0,0.0,1047.0,806.9,7.0,14.5893
63,65c21d0abf85afd03721abba,190.0,190.0,0.0,228.0,0.0,932.0,670.0,270.0,50.6551
72,65c21d0abf85afd03721abc3,425.0,106.3,0.0,153.5,16.5,852.1,887.1,3.0,33.3982
81,65c21d0abf85afd03721abcc,318.8,212.5,0.0,155.7,14.3,852.1,880.4,3.0,25.2003
90,65c21d0abf85afd03721abd5,389.9,189.0,0.0,145.9,22.0,944.7,755.8,3.0,40.5963
99,65c21d0abf85afd03721abde,469.0,117.2,0.0,137.8,32.2,852.1,840.5,7.0,54.8961
108,65c21d0abf85afd03721abe7,379.5,151.2,0.0,153.9,15.9,1134.3,605.0,7.0,47.0981
117,65c21d0abf85afd03721abf0,313.3,262.2,0.0,175.5,8.6,1046.9,611.8,28.0,59.7983
126,65c21d0abf85afd03721abf9,425.0,106.3,0.0,153.5,16.5,852.1,887.1,28.0,60.2947
135,65c21d0abf85afd03721ac02,439.0,177.0,0.0,186.0,11.1,884.9,707.9,28.0,65.9966
144,65c21d0abf85afd03721ac0b,475.0,118.8,0.0,181.1,8.9,852.1,781.5,56.0,72.2985
153,65c21d0abf85afd03721ac14,323.7,282.8,0.0,183.8,10.3,942.7,659.9,56.0,80.1998
162,65c21d0abf85afd03721ac1d,374.0,189.2,0.0,170.1,10.1,926.1,756.7,91.0,64.9004
171,65c21d0abf85afd03721ac26,531.3,0.0,0.0,141.8,28.2,852.1,893.7,91.0,59.1984
180,65c21d0abf85afd03721ac2f,439.0,177.0,0.0,186.0,11.1,884.9,707.9,91.0,73.2982
189,65c21d0abf85afd03721ac38,233.81,0.0,94.58,197.89,4.567,947.04,852.16,3.0,10.3835
198,65c21d0abf85afd03721ac41,194.68,0.0,100.52,165.62,7.48,1006.4,905.9,100.0,37.342
207,65c21d0abf85afd03721ac4a,212.07,0.0,121.62,180.31,5.69,1057.6,779.32,56.0,34.2049
216,65c21d0abf85afd03721ac53,190.34,0.0,125.18,161.85,9.88,1088.1,802.59,28.0,28.4685
225,65c21d0abf85afd03721ac5c,167.95,42.08,163.83,121.75,5.72,1058.7,780.11,14.0,17.823
234,65c21d0abf85afd03721ac65,213.76,98.06,24.52,181.74,6.65,1066.0,785.52,3.0,13.1828
243,65c21d0abf85afd03721ac6e,229.68,0.0,118.16,195.23,6.13,1028.1,757.63,100.0,40.8583
252,65c21d0abf85afd03721ac77,250.0,0.0,95.69,187.42,5.53,956.86,861.17,56.0,38.328
261,65c21d0abf85afd03721ac80,212.57,0.0,100.39,159.35,10.37,1003.8,903.79,28.0,37.4041
270,65c21d0abf85afd03721ac89,231.75,0.0,121.62,173.96,6.72,1056.4,778.45,14.0,26.7724
279,65c21d0abf85afd03721ac92,251.37,0.0,118.27,188.45,6.35,1028.4,757.73,3.0,13.1207
288,65c21d0abf85afd03721ac9b,181.38,0.0,167.01,169.59,7.56,1055.6,777.8,100.0,45.3675
297,65c21d0abf85afd03721aca4,168.88,42.22,124.25,158.33,10.83,1080.8,796.15,56.0,39.1484
306,65c21d0abf85afd03721acad,277.05,0.0,97.39,160.6,11.83,973.9,875.61,28.0,48.284
315,65c21d0abf85afd03721acb6,251.81,0.0,99.94,146.14,12.35,1006.0,899.76,14.0,33.3568
324,65c21d0abf85afd03721acbf,252.31,0.0,98.75,146.25,14.17,987.76,889.01,3.0,21.7805
333,65c21d0abf85afd03721acc8,246.83,0.0,125.08,143.3,11.99,1086.8,800.89,100.0,66.4241
342,65c21d0abf85afd03721acd1,297.16,0.0,117.54,174.8,9.52,1022.8,753.45,56.0,51.9589
351,65c21d0abf85afd03721acda,213.5,0.0,174.24,154.61,11.66,1052.3,775.48,28.0,45.9398
360,65c21d0abf85afd03721ace3,218.23,54.64,123.78,140.75,11.91,1075.7,792.67,14.0,35.9562
369,65c21d0abf85afd03721acec,218.85,0.0,124.13,158.49,11.33,1078.7,794.91,3.0,15.3408
378,65c21d0abf85afd03721acf5,376.0,0.0,0.0,214.6,0.0,1003.5,762.36,100.0,43.0578
387,65c21d0abf85afd03721acfe,520.0,0.0,0.0,175.0,5.2,870.0,805.0,28.0,51.0212
396,65c21d0abf85afd03721ad07,516.0,0.0,0.0,162.0,8.26,801.0,802.0,28.0,41.36856
405,65c21d0abf85afd03721ad10,500.0,0.0,0.0,151.0,9.0,1033.0,655.0,28.0,69.837
414,65c21d0abf85afd03721ad19,190.34,0.0,125.18,166.61,9.88,1079.0,798.9,3.0,12.5485
423,65c21d0abf85afd03721ad22,172.38,13.61,172.37,156.76,4.14,1006.3,856.4,14.0,29.7509
432,65c21d0abf85afd03721ad2b,165.0,0.02,143.57,163.81,0.0,1005.6,900.9,28.0,26.2001
441,65c21d0abf85afd03721ad34,250.0,0.0,95.69,191.84,5.33,948.9,857.2,28.0,27.2205
450,65c21d0abf85afd03721ad3d,173.54,50.05,173.53,164.77,6.47,1006.2,793.5,56.0,53.7722
459,65c21d0abf85afd03721ad46,165.0,128.5,132.1,175.06,8.08,1005.8,746.6,100.0,55.0202
468,65c21d0abf85afd03721ad4f,213.5,0.0,174.24,159.21,11.66,1043.6,771.9,100.0,52.9587
477,65c21d0abf85afd03721ad58,446.0,24.0,79.0,162.0,11.64,967.0,712.0,3.0,23.3457
486,65c21d0abf85afd03721ad61,387.0,20.0,94.0,157.0,13.93,938.0,845.0,28.0,46.6844
495,65c21d0abf85afd03721ad6a,387.0,20.0,94.0,157.0,13.93,938.0,845.0,56.0,47.9668
504,65c21d0abf85afd03721ad73,491.0,26.0,123.0,201.0,3.93,822.0,699.0,3.0,29.549
513,65c21d0abf85afd03721ad7c,424.0,22.0,132.0,168.0,8.92,822.0,750.0,7.0,40.2851
522,65c21d0abf85afd03721ad85,284.0,15.0,141.0,179.0,5.46,842.0,801.0,56.0,44.5205
531,65c21d0abf85afd03721ad8e,436.0,0.0,0.0,218.0,0.0,838.4,719.7,28.0,23.849
540,65c21d0abf85afd03721ad97,480.0,0.0,0.0,192.0,0.0,936.2,712.2,3.0,24.4047
549,65c21d0abf85afd03721ada0,333.0,0.0,0.0,192.0,0.0,931.2,842.6,90.0,41.6802
558,65c21d0abf85afd03721ada9,272.8,181.9,0.0,185.7,0.0,1012.4,714.3,7.0,19.7652
567,65c21d0abf85afd03721adb2,203.5,135.7,0.0,185.7,0.0,1076.2,759.3,7.0,11.9576
576,65c21d0abf85afd03721adbb,339.2,0.0,0.0,185.7,0.0,1069.2,754.3,7.0,21.1793
585,65c21d0abf85afd03721adc4,290.2,193.5,0.0,185.7,0.0,998.2,704.3,28.0,33.0431
594,65c21d0abf85afd03721adcd,316.1,210.7,0.0,185.7,0.0,977.0,689.3,7.0,24.4378
603,65c21d0abf85afd03721add6,339.0,0.0,0.0,197.0,0.0,968.0,781.0,180.0,36.4457
612,65c21d0abf85afd03721addf,277.0,0.0,0.0,191.0,0.0,968.0,856.0,28.0,25.9657
621,65c21d0abf85afd03721ade8,307.0,0.0,0.0,193.0,0.0,968.0,812.0,180.0,34.4876
630,65c21d0abf85afd03721adf1,225.0,0.0,0.0,181.0,0.0,1113.0,833.0,28.0,17.3403
639,65c21d0abf85afd03721adfa,400.0,0.0,0.0,187.0,0.0,1025.0,745.0,28.0,43.699
648,65c21d0abf85afd03721ae03,141.3,212.0,0.0,203.5,0.0,971.8,748.5,28.0,29.8922
657,65c21d0abf85afd03721ae0c,108.3,162.4,0.0,203.5,0.0,938.2,849.0,28.0,20.594
666,65c21d0abf85afd03721ae15,192.0,288.0,0.0,192.0,0.0,929.8,716.1,3.0,12.7884
675,65c21d0abf85afd03721ae1e,183.9,122.6,0.0,203.5,0.0,959.2,800.0,90.0,32.5329
684,65c21d0abf85afd03721ae27,192.0,288.0,0.0,192.0,0.0,929.8,716.1,90.0,50.7323
693,65c21d0abf85afd03721ae30,153.0,102.0,0.0,192.0,0.0,888.0,943.1,28.0,17.9643
702,65c21d0abf85afd03721ae39,200.0,133.0,0.0,192.0,0.0,965.4,806.2,7.0,17.1659
711,65c21d0abf85afd03721ae42,305.3,203.5,0.0,203.5,0.0,965.4,631.0,90.0,54.5989
720,65c21d0abf85afd03721ae4b,203.5,305.3,0.0,203.5,0.0,963.4,630.0,90.0,51.8638
729,65c21d0abf85afd03721ae54,331.0,0.0,0.0,192.0,0.0,1025.0,821.0,90.0,37.9143
738,65c21d0abf85afd03721ae5d,296.0,0.0,0.0,186.0,0.0,1090.0,769.0,7.0,18.9123
747,65c21d0abf85afd03721ae66,500.0,0.0,0.0,200.0,0.0,1125.0,613.0,3.0,26.0622
756,65c21d0abf85afd03721ae6f,540.0,0.0,0.0,173.0,0.0,1125.0,613.0,270.0,74.1669
765,65c21d0abf85afd03721ae78,385.0,0.0,0.0,186.0,0.0,966.0,763.0,7.0,23.2216
774,65c21d0abf85afd03721ae81,382.0,0.0,0.0,186.0,0.0,1111.0,784.0,7.0,11.466
783,65c21d0abf85afd03721ae8a,296.0,0.0,0.0,192.0,0.0,1085.0,765.0,90.0,29.3924
792,65c21d0abf85afd03721ae93,349.0,0.0,0.0,192.0,0.0,1047.0,806.0,360.0,42.127
801,65c21d0abf85afd03721ae9c,252.0,0.0,0.0,185.0,0.0,1111.0,784.0,28.0,19.6914
810,65c21d0abf85afd03721aea5,310.0,0.0,0.0,192.0,0.0,970.0,850.0,7.0,14.9892
819,65c21d0abf85afd03721aeae,525.0,0.0,0.0,189.0,0.0,1125.0,613.0,90.0,58.7847
828,65c21d0abf85afd03721aeb7,522.0,0.0,0.0,146.0,0.0,896.0,896.0,28.0,74.9874
837,65c21d0abf85afd03721aec0,374.0,0.0,0.0,190.0,7.0,1013.0,730.0,28.0,39.0519
846,65c21d0abf85afd03721aec9,366.0,187.0,0.0,191.0,7.0,824.0,757.0,28.0,65.907
855,65c21d0abf85afd03721aed2,326.0,166.0,0.0,174.0,9.0,882.0,790.0,28.0,61.2324
864,65c21d0abf85afd03721aedb,298.0,0.0,107.0,210.0,11.0,880.0,744.0,28.0,31.8745
873,65c21d0abf85afd03721aee4,237.0,92.0,71.0,247.0,6.0,853.0,695.0,28.0,28.627
882,65c21d0abf85afd03721aeed,140.0,133.0,103.0,200.0,7.0,916.0,753.0,28.0,36.4388
891,65c21d0abf85afd03721aef6,151.0,0.0,185.0,167.0,16.0,1074.0,678.0,28.0,13.4586
900,65c21d0abf85afd03721aeff,150.0,237.0,0.0,174.0,12.0,1069.0,675.0,28.0,37.4317
909,65c21d0abf85afd03721af08,146.0,173.0,0.0,182.0,3.0,986.0,817.0,28.0,23.7387
918,65c21d0abf85afd03721af11,145.0,0.0,179.0,202.0,8.0,824.0,869.0,28.0,10.5352
927,65c21d0abf85afd03721af1a,157.0,214.0,152.0,200.0,9.0,819.0,704.0,28.0,33.0535
936,65c21d0abf85afd03721af23,236.9,91.7,71.5,246.9,6.0,852.9,695.4,28.0,28.6298
945,65c21d0abf85afd03721af2c,139.9,132.6,103.3,200.3,7.4,916.0,753.4,28.0,36.4436
954,65c21d0abf85afd03721af35,150.7,0.0,185.3,166.7,15.6,1074.5,678.0,28.0,13.4613
963,65c21d0abf85afd03721af3e,150.0,236.8,0.0,173.8,11.9,1069.3,674.8,28.0,37.4317
972,65c21d0abf85afd03721af47,145.7,172.6,0.0,181.9,3.4,985.8,816.8,28.0,23.7442
981,65c21d0abf85afd03721af50,145.4,0.0,178.9,201.7,7.8,824.0,868.7,28.0,10.5359
990,65c21d0abf85afd03721af59,151.8,178.1,138.7,167.5,18.3,944.0,694.6,28.0,36.3499
999,65c21d0abf85afd03721af62,150.9,0.0,183.9,166.6,11.6,991.2,772.2,28.0,15.5697
1008,65c21d0abf85afd03721af6b,160.2,188.0,146.4,203.2,11.3,828.7,709.7,28.0,35.3143
1017,65c21d0abf85afd03721af74,313.8,0.0,112.6,169.9,10.1,925.3,782.9,28.0,38.461
1026,65c21d0abf85afd03721af7d,322.2,0.0,115.6,196.0,10.4,817.9,813.4,28.0,31.1788
1029,65c21d0abf85afd03721af80,260.9,100.5,78.3,200.6,8.6,864.5,761.5,28.0,32.4012